Wavelength 	 Sample Avg 	 Sample Std 	 Monitor Avg 	 Monitor Std
300	0.00334	0.00031	0.00313	0.0002
400	0.08824	0.01502	0.06482	0.0079
500	0.02699	3e-05	0.01814	3e-05
600	0.06208	3e-05	0.03009	5e-05
700	0.08653	4e-05	0.08366	3e-05
800	0.07651	6e-05	0.12859	4e-05
900	0.09378	6e-05	0.19607	0.00012
1000	0.10435	0.00013	0.28898	0.00013
1100	0.03738	6e-05	0.31953	0.00013
1200	0.00046	2e-05	0.30981	0.00011
